; 1. Radius (px)
; 2. Ellipticity
; 3. Ellipticity Error
; 4. Position Angle
; 5. Position Angle Error
; 6. Isophotal Surface Brightness (mag/arcsec^2)
; 7. Isophotal Surface Brightness Lower Error (mag/arcsec^2)
; 8. Isophotal Surface Brightness Upper Error (mag/arcsec^2)
; 9. Anulas Flux (counts)
; 10. Number of Pixels in Anulus

     0.533761     0.390000      54.8279      36.0000      5174.22      20.0383   0.00135989   0.00135806     0.330625          13
     0.587137     0.390000      48.0935      36.0000      4538.69      20.0376   0.00157444   0.00157365     0.330625          13
     0.645851     0.390000      42.2197      36.0000      3984.36      20.0366   0.00184092   0.00183933     0.330625          13
     0.710436     0.390000      37.0900      36.0000      3500.26      20.0356   0.00216893   0.00216574     0.330625          13
     0.781480     0.390000      32.5997      36.0000      3076.51      20.0343   0.00256831   0.00256362     0.330625          13
     0.859628     0.390000      28.6628      36.0000      2704.97      20.0329   0.00305917   0.00305148     0.330625          13
     0.945590     0.390000      25.2111      36.0000      2379.22      20.0311   0.00366249   0.00365030     0.330625          13
      1.04015     0.390000      22.1785      36.0000      2093.03      20.0291   0.00439942   0.00437984     0.330625          13
      1.14416     0.390000      19.5033      36.0000      1840.56      20.0267   0.00529600   0.00526927     0.330625          13
      1.25858     0.390000      16.4241      36.0000      1549.98      20.0236   0.00622692   0.00619209     0.990718          13
      1.38444     0.390000      12.1189      36.0000      1143.69      20.0192   0.00697972   0.00693595     0.990718          13
      1.52288     0.390000      8.56024      36.0000      807.847      20.0142   0.00766804   0.00761537      2.36299          13
      1.67517     0.390000      5.88813      36.0000      555.676      20.0084   0.00836810   0.00830407      2.36299          13
      1.84269     0.390000      3.95636      36.0000      373.370      20.0020   0.00905572   0.00898003      2.36299          13
      2.02696     0.390000      2.71216      36.0000      255.770      19.9949   0.00970308   0.00961554      2.36299          13
      2.22965     0.390000      1.65153      36.0000      154.555      19.9881    0.0100249   0.00993231      2.36299          13
      2.45262     0.390000      1.32126      36.0000      129.909      19.9787   0.00993976   0.00985039      3.75956          14
      2.69788     0.390000      1.73278      36.0000      165.482      19.9699    0.0118329    0.0117069      5.18623          14
      2.96767     0.390000      1.41784      36.0000      136.511      19.9615    0.0116571    0.0115341      6.62678          15
      3.26444     0.390000      1.35714      36.0000      128.410      19.9568    0.0129039    0.0127516      6.62678          16
      3.59088     0.390000      1.12188      36.0000      108.337      19.9492    0.0141835    0.0140023      8.05345          18
      3.94997     0.390000     0.857305      36.0000      79.6537      19.9482    0.0148916    0.0146888      10.2444          19
      4.34496     0.390000     0.745147      36.0000      69.5483      19.9437    0.0168596    0.0166033      12.4214          21
      4.77946     0.390000     0.663219      36.0000      61.6345      19.9417    0.0202399    0.0198702      16.0899          23
      5.25741     0.390000     0.268014      36.0000      25.5589      19.9406    0.0230393    0.0225595      19.0000          26
      5.78315     0.390000     0.136848      36.0000      12.7925      19.9522    0.0260482    0.0254391      22.6083          28
      6.36146     0.390000     0.113222      36.0000      10.6503      19.9795    0.0259461    0.0253387      27.1348          31
      6.99761     0.390000     0.103681      36.0000      9.72483      20.0121    0.0240264    0.0235059      33.8237          34
      7.69737     0.390000    0.0648959      36.0000      6.02259      20.0426    0.0217538    0.0213262      38.7245          37
      8.46711     0.390000    0.0407425      36.0000      3.80858      20.0843    0.0185146    0.0182032      48.4916          41
      9.31382     0.390000    0.0410414      36.0000      3.82809      20.1342    0.0155342    0.0153163      57.7587          45
      10.2452     0.390000    0.0752456      36.0000      7.08627      20.1706    0.0135448    0.0133776      67.1373          50
      11.2697     0.390000     0.167212      36.0000      15.4672      20.1937    0.0128150    0.0126640      77.6151          54
      12.3967     0.390000     0.163138      36.0000      15.2421      20.2054    0.0120590    0.0119250      93.0753          60
      13.6364     0.390000     0.144987      36.0000      13.3575      20.2168    0.0113822    0.0112635      111.324          65
      15.0000     0.390000   0.00771503      36.0000     0.695534      20.2292    0.0119540    0.0118243      132.770          70
      16.5000     0.390000   0.00924729      36.0000     0.813498      20.2449    0.0124885    0.0123477      157.336          75
      18.1500     0.390000  1.60000e+38      36.0000  1.60000e+38      20.2504    0.0129515    0.0127997      183.653          81
      19.9650     0.390000  1.60000e+38      36.0000  1.60000e+38      20.2692    0.0130852    0.0129276      219.612          88
      21.9615     0.390000  1.60000e+38      36.0000  1.60000e+38      20.3107    0.0137545    0.0135824      258.991          98
      24.1576     0.390000  1.60000e+38      36.0000  1.60000e+38      20.3465    0.0145015    0.0143091      307.375         104
      26.5734     0.390000  1.60000e+38      36.0000  1.60000e+38      20.3941    0.0142263    0.0140406      361.355         117
      29.2308     0.390000  1.60000e+38      36.0000  1.60000e+38      20.4474    0.0117695    0.0116416      420.278         130
      32.1538     0.390000  1.60000e+38      36.0000  1.60000e+38      20.4948    0.0105444    0.0104430      489.689         139
      35.3692     0.390000  1.60000e+38      36.0000  1.60000e+38      20.5596    0.0108303    0.0107247      566.797         150
      38.9061     0.390000  1.60000e+38      36.0000  1.60000e+38      20.6297    0.0104513    0.0103527      650.551         157
      42.7968     0.390000  1.60000e+38      36.0000  1.60000e+38      20.7087   0.00976470   0.00967726      737.832         164
      47.0764     0.390000  1.60000e+38      36.0000  1.60000e+38      20.8006   0.00907304   0.00899716      832.499         168
      51.7841     0.390000  1.60000e+38      36.0000  1.60000e+38      20.9093   0.00951994   0.00943842      929.255         174
      56.9625     0.390000  1.60000e+38      36.0000  1.60000e+38      21.0110   0.00797821   0.00791879      1035.45         201
      62.6587     0.390000  1.60000e+38      36.0000  1.60000e+38      21.1004   0.00884241   0.00877173      1154.30         220
      68.9246     0.390000  1.60000e+38      36.0000  1.60000e+38      21.2450   0.00746091   0.00741034      1293.96         273
      75.8171     0.390000  1.60000e+38      36.0000  1.60000e+38      21.3633   0.00777448   0.00771955      1458.69         321
      83.3988     0.390000  1.60000e+38      36.0000  1.60000e+38      21.5103   0.00689633   0.00685216      1643.49         361
      91.7387     0.390000  1.60000e+38      36.0000  1.60000e+38      21.6154   0.00780348   0.00774639      1854.69         423
      100.913     0.390000  1.60000e+38      36.0000  1.60000e+38      21.7681   0.00659156   0.00655071      2085.98         467
      111.004     0.390000  1.60000e+38      36.0000  1.60000e+38      21.9104   0.00645842   0.00642185      2333.88         517
      122.104     0.390000  1.60000e+38      36.0000  1.60000e+38      22.0430   0.00615581   0.00612179      2605.23         588
      134.315     0.390000  1.60000e+38      36.0000  1.60000e+38      22.2015   0.00737026   0.00732173      2896.32         646
      147.746     0.390000  1.60000e+38      36.0000  1.60000e+38      22.3572   0.00857650   0.00850783      3203.27         711
      162.521     0.390000  1.60000e+38      36.0000  1.60000e+38      22.5088   0.00936232   0.00928157      3519.64         747
      178.773     0.390000  1.60000e+38      36.0000  1.60000e+38      22.6654    0.0101290    0.0100356      3835.62         811
      196.650     0.390000  1.60000e+38      36.0000  1.60000e+38      22.8605    0.0110445    0.0109317      4159.88         871
      216.315     0.390000  1.60000e+38      36.0000  1.60000e+38      23.1008    0.0133127    0.0131532      4475.60         960
      237.947     0.390000  1.60000e+38      36.0000  1.60000e+38      23.2475    0.0137222    0.0135496      4803.39        1108
      261.741     0.390000  1.60000e+38      36.0000  1.60000e+38      23.5054    0.0174703    0.0171927      5144.17        1191
      287.915     0.390000  1.60000e+38      36.0000  1.60000e+38      23.7652    0.0209909    0.0205916      5450.03        1229
      316.707     0.390000  1.60000e+38      36.0000  1.60000e+38      23.9681    0.0225357    0.0220770      5744.38        1330
      348.378     0.390000  1.60000e+38      36.0000  1.60000e+38      24.2078    0.0269036    0.0262541      6013.49        1378
      383.215     0.390000  1.60000e+38      36.0000  1.60000e+38      24.4882    0.0355389    0.0344131      6256.90        1514
      421.537     0.390000  1.60000e+38      36.0000  1.60000e+38      24.6864    0.0418048    0.0402531      6481.90        1515
      463.691     0.390000  1.60000e+38      36.0000  1.60000e+38      24.9647    0.0528608    0.0504073      6698.02        1691
