; 1. Radius (px)
; 2. Ellipticity
; 3. Ellipticity Error
; 4. Position Angle
; 5. Position Angle Error
; 6. Isophotal Surface Brightness (mag/arcsec^2)
; 7. Isophotal Surface Brightness Lower Error (mag/arcsec^2)
; 8. Isophotal Surface Brightness Upper Error (mag/arcsec^2)
; 9. Anulas Flux (counts)
; 10. Number of Pixels in Anulus

     0.533761    0.0412497     0.124708     0.166103      91.4592      19.5933   0.00247884   0.00247164     0.528542          13
     0.587137    0.0455858     0.126873     0.166103      84.3832      19.5997   0.00282928   0.00282190     0.528542          13
     0.645851    0.0455858     0.128458      1.65920      85.4378      19.6070   0.00321431   0.00320433     0.528542          13
     0.710436    0.0370132     0.132886      1.65920      108.378      19.6156   0.00372664   0.00371410     0.528542          13
     0.781480  0.000488032     0.106997      77.6588      6497.15      19.6294   0.00352358   0.00351352     0.528542          13
     0.859628    0.0390552     0.136931     -106.759      105.948      19.6361   0.00504597   0.00502305     0.528542          13
     0.945590    0.0270037     0.126813     -106.759      141.042      19.6490   0.00583912   0.00580724     0.528542          13
      1.04015    0.0120241    0.0950680      73.2409      235.672      19.6673   0.00540388   0.00537550      2.48067          13
      1.14416    0.0244111    0.0946722      67.3716      116.325      19.6841   0.00605397   0.00602116      2.48067          13
      1.25858    0.0141109    0.0757196      48.8883      160.115      19.7084   0.00517213   0.00514939      2.48067          13
      1.38444   0.00399889    0.0765053      68.8520      567.971      19.7306   0.00543016   0.00540473      2.48067          13
      1.52288   0.00884699    0.0717907      85.9560      241.491      19.7529   0.00543749   0.00540939      4.18512          13
      1.67517    0.0208923    0.0626776     -77.4545      89.8236      19.7756   0.00511458   0.00509065      4.18512          13
      1.84269    0.0262234    0.0541921     -36.2291      62.0416      19.8055   0.00471662   0.00469504      4.18512          13
      2.02696    0.0442359    0.0501628     -36.2291      34.2940      19.8312   0.00494387   0.00491995      4.18512          13
      2.22965    0.0707751    0.0515346     -36.2291      22.4283      19.8570   0.00597488   0.00594237      5.80738          14
      2.45262    0.0856020    0.0444850     -35.5319      15.8462      19.8886   0.00625930   0.00622329      8.94312          15
      2.69788     0.113823    0.0499083     -29.4858      13.3834      19.9181   0.00774566   0.00769130      8.94312          16
      2.96767     0.113823    0.0523735     -20.1658      14.3604      19.9562   0.00844289   0.00837924      9.66572          18
      3.26444     0.169796    0.0587754     -20.1658      11.0750      19.9752   0.00971414   0.00962983      11.0484          19
      3.59088     0.195327    0.0702254     -16.6538      11.8943      20.0007   0.00986213   0.00977223      12.4531          21
      3.94997     0.279722    0.0801282     -16.6538      9.67335      20.0061    0.0114919    0.0113722      13.1641          21
      4.34496     0.354349    0.0830435     -16.7851      8.42685      20.0068    0.0132278    0.0130689      14.5144          22
      4.77946     0.446550    0.0760548     -16.7851      6.52575      19.9989    0.0147500    0.0145512      15.1548          22
      5.25741     0.519488    0.0621557     -16.7851      4.82594      20.0002    0.0161320    0.0158970      15.1108          22
      5.78315     0.550005    0.0601395     -14.5678      4.66996      20.0084    0.0153445    0.0151312      17.8982          24
      6.36146     0.617922    0.0519869     -12.8611      3.72169      20.0006    0.0167886    0.0165337      17.8600          23
      6.99761     0.453274    0.0253552      5.12027      2.15562      20.0052   0.00694657   0.00690339      29.2085          32
      7.69737     0.380238    0.0347335      8.46217      3.33878      20.0599   0.00908103   0.00900645      41.3147          38
      8.46711     0.350581    0.0339484      12.3521      3.39132      20.1070   0.00789619   0.00783839      51.4398          42
      9.31382     0.317681    0.0384166      6.79514      4.18300      20.1563   0.00825852   0.00819440      64.1351          48
      10.2452     0.303727    0.0439360      6.79514      4.91984      20.1903   0.00875315   0.00868377      75.7652          53
      11.2697     0.550178    0.0550013      20.7358      4.20571      20.1249    0.0105629    0.0104621      61.2216          46
      12.3967     0.550178    0.0551353      20.7358      4.16864      20.1476    0.0104740    0.0103746      71.5647          50
      13.6364     0.599642    0.0282662      22.1638      2.05222      20.1473   0.00984775   0.00975987      78.7555          51
      15.0000     0.576230   0.00589579      25.8308     0.434128      20.1918    0.0110807    0.0109686      95.3631          58
      16.5000     0.587180    0.0452569      25.8308      3.31792      20.2209    0.0121175    0.0119846      112.278          63
      18.1500     0.100658    0.0308073      86.8365      9.36153      20.3072   0.00624575   0.00621101      269.168         104
      19.9650     0.100658    0.0224654      82.7471      6.62985      20.3636   0.00567165   0.00564228      315.930         113
      21.9615     0.139081    0.0279873      68.1435      5.90650      20.4131   0.00610842   0.00607360      360.847         122
      24.1576    0.0860156    0.0170076      84.6209      5.77982      20.4774   0.00412821   0.00411091      443.112         140
      26.5734     0.175321    0.0111688      76.8901      2.01398      20.4873   0.00440277   0.00438617      476.101         142
      29.2308     0.175321    0.0184309      71.3025      3.28710      20.5779   0.00476226   0.00474100      551.185         153
      32.1538     0.199104    0.0134007      54.6887      1.93219      20.6210   0.00480234   0.00478261      619.532         162
      35.3692     0.186781    0.0157499      54.6887      2.32465      20.7270   0.00495164   0.00492822      718.923         168
      38.9061     0.204082    0.0117315      44.4557      1.78706      20.7890   0.00492237   0.00490023      801.252         166
      42.7968     0.211015    0.0136697      40.9639      2.14573      20.8868   0.00494284   0.00492064      890.578         168
      47.0764     0.211015    0.0107404      40.9639      1.64904      20.9687   0.00486114   0.00483839      991.493         186
      51.7841     0.205762    0.0107008      43.6349      1.54011      21.0769   0.00529278   0.00526753      1109.84         218
      56.9625     0.232875    0.0103026      41.9340      1.28798      21.1898   0.00480067   0.00477922      1218.36         248
      62.6587     0.225886   0.00959038      40.7186      1.18772      21.3094   0.00494246   0.00491949      1361.46         282
      68.9246     0.268935   0.00884328      36.3545      1.06886      21.3960   0.00530278   0.00527700      1470.44         319
      75.8171     0.268935    0.0118112      36.3545      1.52221      21.5381   0.00562974   0.00559996      1649.97         351
      83.3988     0.301208   0.00905235      42.9912      1.02922      21.6053   0.00649587   0.00645598      1795.83         422
      91.7387     0.307627   0.00849368      43.7798     0.985736      21.7513   0.00518111   0.00515644      2014.58         455
      100.913     0.346697   0.00734539      41.1767     0.769531      21.8184   0.00595960   0.00592540      2179.33         481
      111.004     0.346697   0.00898196      37.0734     0.904730      21.9813   0.00570180   0.00567324      2431.14         552
      122.104     0.373241   0.00947293      37.0734     0.908598      22.0702   0.00641440   0.00637615      2649.89         597
      134.315     0.373241   0.00932717      37.0734     0.893664      22.2094   0.00674951   0.00670842      2943.02         656
      147.746     0.373241   0.00648521      38.0836     0.621712      22.3439   0.00743118   0.00738250      3257.23         722
      162.521     0.379543    0.0110001      38.0836      1.04098      22.5562   0.00883714   0.00876765      3562.22         789
      178.773     0.390471   0.00900421      38.0836     0.804883      22.6604   0.00928808   0.00920828      3843.22         800
      196.650     0.360420    0.0109071      36.3527      1.01689      22.9298    0.0111514    0.0110397      4256.58         901
      216.315     0.360420    0.0182597      36.3527      1.66740      23.1395    0.0136861    0.0135164      4564.01         944
      237.947     0.360420    0.0110915      34.3913      1.07983      23.3085    0.0135195    0.0133527      4896.99        1163
      261.741     0.392090    0.0128088      34.3913      1.13591      23.4507    0.0154946    0.0152781      5140.67        1160
      287.915     0.401656    0.0121646      37.9329      1.07622      23.6439    0.0188157    0.0184966      5439.17        1241
      316.707     0.372972    0.0223838      39.1166      2.19159      24.1040    0.0244992    0.0239604      5811.91        1368
      348.378     0.397033    0.0184238      35.8933      1.74567      24.1127    0.0257375    0.0251426      5997.89        1330
      383.215     0.443638    0.0269270      38.5367      2.53440      24.4004    0.0321319    0.0312093      6142.07        1449
      421.537     0.443638    0.0399805      36.1425      3.30348      24.5669    0.0379066    0.0366273      6376.56        1470
      463.691     0.443471   0.00798550      28.6707     0.641743      24.8627    0.0453959    0.0435722      6591.74        1725
